Data from QEP037381__528__16-08-26-585.txt Node

Date: Mon Mar 14 16:08:26 EDT 2022
User: dcclab
Spectrometer: QEP03738
Trigger mode: 4
Integration Time (sec): 2.500000E0
Scans to average: 1
Electric dark correction enabled: true
Nonlinearity correction enabled: false
Boxcar width: 0
XAxis mode: Wavelengths
Number of Pixels in Spectrum: 1044
>>>>>Begin Spectral Data<<<<<
783.959	13
784.218	1
784.476	-2
784.734	-3
784.992	247
785.251	233
785.509	224
785.767	217
786.025	217
786.283	216
786.541	206
786.798	208
787.056	195
787.314	182
787.572	206
787.83	203
788.087	209
788.345	192
788.602	184
788.86	181
789.117	193
789.375	193
789.632	185
789.89	181
790.147	202
790.404	188
790.661	200
790.919	210
791.176	195
791.433	191
791.69	205
791.947	199
792.204	190
792.461	214
792.718	212
792.974	209
793.231	209
793.488	240
793.745	221
794.001	238
794.258	276
794.514	244
794.771	266
795.027	271
795.284	276
795.54	291
795.797	306
796.053	338
796.309	361
796.565	372
796.822	422
797.078	469
797.334	547
797.59	623
797.846	761
798.102	984
798.358	1297
798.614	1828
798.869	2642
799.125	3882
799.381	5608
799.637	7927
799.892	10790
800.148	13780
800.403	16720
800.659	19341
800.914	21421
801.17	22759
801.425	23588
801.68	24247
801.936	25054
802.191	25546
802.446	26042
802.701	26504
802.957	27182
803.212	27673
803.467	28256
803.722	28903
803.977	29513
804.232	30016
804.486	30517
804.741	31067
804.996	31775
805.251	32400
805.505	33009
805.76	33468
806.015	34083
806.269	34632
806.524	35154
806.778	35394
807.033	35637
807.287	36046
807.541	36632
807.796	37011
808.05	37592
808.304	37910
808.558	38098
808.812	38620
809.066	38742
809.32	38881
809.574	39339
809.828	39579
810.082	39671
810.336	40062
810.59	40813
810.844	41077
811.097	41528
811.351	42318
811.605	42824
811.858	43490
812.112	44351
812.365	44898
812.619	45646
812.872	46355
813.126	46966
813.379	47647
813.632	48394
813.885	48863
814.139	49711
814.392	50539
814.645	51303
814.898	52228
815.151	53123
815.404	54030
815.657	55083
815.91	55940
816.163	56666
816.416	57288
816.668	57689
816.921	58145
817.174	58353
817.426	58445
817.679	58292
817.931	58403
818.184	58318
818.436	58366
818.689	58599
818.941	58589
819.194	58869
819.446	59257
819.698	59314
819.95	59688
820.202	59950
820.455	60112
820.707	60359
820.959	60220
821.211	60469
821.462	60386
821.714	60066
821.966	59903
822.218	59660
822.47	59311
822.722	59326
822.973	58913
823.225	58970
823.476	58790
823.728	59008
823.979	58829
824.231	59023
824.482	59073
824.734	59083
824.985	59090
825.236	58970
825.487	58902
825.739	58777
825.99	58669
826.241	58446
826.492	58170
826.743	57613
826.994	57534
827.245	57509
827.496	57380
827.747	57261
827.997	57183
828.248	57340
828.499	57338
828.75	57415
829	57434
829.251	57406
829.501	57364
829.752	57013
830.002	56829
830.253	56470
830.503	56159
830.753	55714
831.004	55573
831.254	55450
831.504	55126
831.754	55115
832.004	55015
832.254	55150
832.504	55189
832.754	55336
833.004	55093
833.254	54986
833.504	54957
833.754	54593
834.003	54732
834.253	54445
834.503	54250
834.752	53952
835.002	53706
835.252	53518
835.501	53155
835.75	52987
836	53020
836.249	53079
836.499	53060
836.748	52855
836.997	52961
837.246	53026
837.495	53661
837.744	54101
837.993	54745
838.242	55268
838.491	55054
838.74	54155
838.989	53204
839.238	52509
839.487	51942
839.736	51588
839.984	51260
840.233	51043
840.482	50767
840.73	50401
840.979	50303
841.227	50212
841.476	49972
841.724	49780
841.972	49795
842.221	49650
842.469	49479
842.717	49299
842.965	49170
843.213	48959
843.461	48957
843.71	48577
843.958	48371
844.205	48303
844.453	48280
844.701	48119
844.949	48317
845.197	48214
845.445	48122
845.692	48263
845.94	48227
846.188	48153
846.435	48310
846.683	48118
846.93	47863
847.178	47609
847.425	47254
847.672	47042
847.92	46558
848.167	46021
848.414	45661
848.661	45383
848.908	45177
849.155	45168
849.402	45133
849.649	45245
849.896	45520
850.143	45856
850.39	46223
850.637	46222
850.884	46004
851.131	45877
851.377	45704
851.624	45454
851.87	45281
852.117	45084
852.364	44774
852.61	44880
852.856	44647
853.103	44461
853.349	44426
853.595	44185
853.842	43962
854.088	43747
854.334	43749
854.58	43506
854.826	43306
855.072	43085
855.318	42669
855.564	42351
855.81	42022
856.056	41645
856.302	41323
856.548	41039
856.793	40849
857.039	40578
857.285	40437
857.53	40499
857.776	40432
858.021	40584
858.267	40690
858.512	40914
858.758	40781
859.003	40955
859.248	40874
859.493	40838
859.739	40655
859.984	40571
860.229	40209
860.474	40001
860.719	39712
860.964	39467
861.209	39500
861.454	39117
861.699	38674
861.943	38677
862.188	38629
862.433	38316
862.678	38427
862.922	38183
863.167	38014
863.411	37909
863.656	37902
863.9	37821
864.145	37749
864.389	37407
864.634	37285
864.878	37004
865.122	37076
865.366	36939
865.61	36999
865.855	37017
866.099	36766
866.343	36751
866.587	36622
866.831	36692
867.074	36679
867.318	36569
867.562	36611
867.806	36395
868.05	36592
868.293	36567
868.537	36394
868.78	36168
869.024	35958
869.267	35453
869.511	35351
869.754	35025
869.998	34727
870.241	34386
870.484	34104
870.728	33966
870.971	33794
871.214	33574
871.457	33654
871.7	33584
871.943	33656
872.186	33603
872.429	33594
872.672	33584
872.915	33487
873.158	33557
873.4	33575
873.643	33460
873.886	33208
874.128	32990
874.371	33025
874.613	32984
874.856	32786
875.098	32630
875.341	32695
875.583	32515
875.825	32477
876.068	32329
876.31	32042
876.552	31810
876.794	31396
877.036	31252
877.278	30998
877.52	30885
877.762	30652
878.004	30658
878.246	30582
878.488	30515
878.73	30409
878.972	30485
879.213	30507
879.455	30551
879.697	30489
879.938	30423
880.18	30330
880.421	30140
880.663	30273
880.904	30266
881.145	30393
881.387	30497
881.628	30419
881.869	30132
882.11	29943
882.352	29859
882.593	29589
882.834	29460
883.075	29359
883.316	29379
883.557	29291
883.797	29021
884.038	28823
884.279	28450
884.52	28128
884.761	27897
885.001	27611
885.242	27410
885.482	27395
885.723	27182
885.963	26995
886.204	26842
886.444	26691
886.685	26671
886.925	26462
887.165	26444
887.405	26273
887.646	26144
887.886	26191
888.126	26042
888.366	26076
888.606	26204
888.846	26066
889.086	26271
889.326	26022
889.565	26113
889.805	26077
890.045	25957
890.285	25906
890.524	25932
890.764	25771
891.003	25568
891.243	25277
891.482	25190
891.722	24884
891.961	24805
892.201	24651
892.44	24538
892.679	24364
892.918	24327
893.158	24198
893.397	24216
893.636	24021
893.875	23903
894.114	23822
894.353	23707
894.592	23644
894.831	23646
895.069	23397
895.308	23226
895.547	23148
895.786	22971
896.024	22948
896.263	23046
896.501	22875
896.74	22832
896.978	22794
897.217	22804
897.455	22819
897.694	22709
897.932	22486
898.17	22490
898.408	22335
898.646	22267
898.885	22213
899.123	22093
899.361	21945
899.599	21782
899.837	21677
900.075	21492
900.312	21200
900.55	21112
900.788	20978
901.026	20763
901.263	20534
901.501	20362
901.739	20232
901.976	20137
902.214	20099
902.451	20037
902.689	19989
902.926	19947
903.163	19788
903.401	19855
903.638	19788
903.875	19878
904.112	19746
904.349	19771
904.586	19664
904.823	19629
905.06	19491
905.297	19436
905.534	19128
905.771	19044
906.008	18889
906.245	18874
906.481	18715
906.718	18539
906.955	18426
907.191	18420
907.428	18379
907.664	18345
907.901	18180
908.137	18139
908.374	18056
908.61	18039
908.846	17929
909.083	17752
909.319	17776
909.555	17583
909.791	17440
910.027	17345
910.263	17184
910.499	17021
910.735	16896
910.971	16742
911.207	16671
911.443	16587
911.678	16465
911.914	16428
912.15	16397
912.385	16451
912.621	16415
912.857	16306
913.092	16342
913.328	16250
913.563	16231
913.798	16241
914.034	16208
914.269	16235
914.504	16103
914.739	16113
914.975	15855
915.21	15809
915.445	15734
915.68	15571
915.915	15387
916.15	15317
916.384	15088
916.619	14923
916.854	14825
917.089	14786
917.324	14585
917.558	14565
917.793	14469
918.028	14427
918.262	14366
918.497	14346
918.731	14388
918.965	14295
919.2	14289
919.434	14202
919.668	14217
919.903	14091
920.137	14166
920.371	14003
920.605	13961
920.839	13771
921.073	13788
921.307	13613
921.541	13586
921.775	13503
922.009	13500
922.243	13379
922.476	13409
922.71	13345
922.944	13383
923.177	13208
923.411	13303
923.644	13287
923.878	13203
924.111	13117
924.345	13126
924.578	13078
924.811	12912
925.045	12875
925.278	12774
925.511	12694
925.744	12607
925.977	12510
926.21	12480
926.443	12364
926.676	12128
926.909	12198
927.142	12091
927.375	12000
927.608	11903
927.841	11854
928.073	11896
928.306	11748
928.539	11776
928.771	11775
929.004	11700
929.236	11742
929.469	11688
929.701	11749
929.933	11675
930.166	11693
930.398	11685
930.63	11672
930.862	11694
931.094	11562
931.327	11539
931.559	11453
931.791	11381
932.023	11250
932.255	11264
932.486	11177
932.718	11061
932.95	11031
933.182	10962
933.413	10887
933.645	10830
933.877	10819
934.108	10757
934.34	10676
934.571	10663
934.803	10590
935.034	10556
935.265	10527
935.497	10518
935.728	10511
935.959	10485
936.19	10374
936.422	10380
936.653	10270
936.884	10222
937.115	10166
937.346	10070
937.577	10065
937.807	10000
938.038	9903
938.269	9890
938.5	9847
938.73	9851
938.961	9775
939.192	9789
939.422	9815
939.653	9820
939.883	9756
940.114	9732
940.344	9736
940.574	9700
940.805	9610
941.035	9584
941.265	9504
941.495	9458
941.726	9350
941.956	9364
942.186	9261
942.416	9278
942.646	9136
942.876	9069
943.105	9026
943.335	8900
943.565	8877
943.795	8787
944.024	8741
944.254	8631
944.484	8629
944.713	8613
944.943	8554
945.172	8566
945.402	8436
945.631	8480
945.86	8427
946.09	8472
946.319	8458
946.548	8430
946.777	8468
947.006	8359
947.235	8359
947.465	8294
947.694	8228
947.922	8212
948.151	8154
948.38	8082
948.609	8057
948.838	8021
949.067	7921
949.295	7906
949.524	7776
949.752	7781
949.981	7779
950.21	7676
950.438	7654
950.666	7569
950.895	7539
951.123	7477
951.351	7454
951.58	7487
951.808	7420
952.036	7383
952.264	7338
952.492	7333
952.72	7320
952.948	7239
953.176	7171
953.404	7102
953.632	7112
953.86	7025
954.088	6971
954.315	6889
954.543	6939
954.771	6865
954.998	6782
955.226	6842
955.453	6757
955.681	6786
955.908	6665
956.135	6723
956.363	6696
956.59	6664
956.817	6691
957.045	6610
957.272	6608
957.499	6574
957.726	6623
957.953	6521
958.18	6539
958.407	6481
958.634	6423
958.861	6392
959.087	6412
959.314	6333
959.541	6300
959.767	6192
959.994	6200
960.221	6133
960.447	6079
960.674	6059
960.9	5945
961.127	5968
961.353	5907
961.579	5864
961.806	5908
962.032	5802
962.258	5736
962.484	5765
962.71	5719
962.936	5699
963.162	5729
963.388	5678
963.614	5683
963.84	5628
964.066	5641
964.292	5636
964.518	5607
964.743	5535
964.969	5541
965.195	5511
965.42	5477
965.646	5453
965.871	5480
966.097	5405
966.322	5399
966.547	5422
966.773	5399
966.998	5298
967.223	5317
967.448	5295
967.674	5228
967.899	5204
968.124	5192
968.349	5123
968.574	5097
968.799	5078
969.024	5073
969.248	4996
969.473	5010
969.698	5000
969.923	4980
970.147	4920
970.372	4942
970.596	4866
970.821	4885
971.046	4762
971.27	4770
971.494	4744
971.719	4707
971.943	4670
972.167	4643
972.392	4623
972.616	4533
972.84	4583
973.064	4518
973.288	4518
973.512	4485
973.736	4487
973.96	4508
974.184	4424
974.408	4429
974.631	4405
974.855	4430
975.079	4375
975.303	4368
975.526	4387
975.75	4322
975.973	4322
976.197	4282
976.42	4292
976.644	4237
976.867	4242
977.09	4192
977.313	4209
977.537	4162
977.76	4110
977.983	4077
978.206	4066
978.429	4050
978.652	4003
978.875	3956
979.098	3910
979.321	3906
979.544	3871
979.767	3839
979.989	3843
980.212	3840
980.435	3826
980.657	3761
980.88	3742
981.102	3734
981.325	3752
981.547	3714
981.77	3705
981.992	3664
982.214	3668
982.437	3632
982.659	3603
982.881	3613
983.103	3583
983.325	3619
983.547	3544
983.769	3533
983.991	3540
984.213	3462
984.435	3517
984.657	3460
984.879	3464
985.1	3455
985.322	3430
985.544	3393
985.765	3403
985.987	3382
986.208	3387
986.43	3330
986.651	3327
986.873	3290
987.094	3287
987.315	3277
987.536	3233
987.758	3225
987.979	3205
988.2	3205
988.421	3137
988.642	3145
988.863	3119
989.084	3091
989.305	3088
989.526	3067
989.747	3066
989.967	3012
990.188	3030
990.409	2986
990.629	2979
990.85	2942
991.071	2897
991.291	2952
991.512	2887
991.732	2877
991.952	2891
992.173	2857
992.393	2876
992.613	2833
992.834	2854
993.054	2834
993.274	2834
993.494	2830
993.714	2817
993.934	2812
994.154	2800
994.374	2807
994.594	2741
994.813	2747
995.033	2747
995.253	2704
995.473	2730
995.692	2709
995.912	2688
996.131	2667
996.351	2637
996.57	2621
996.79	2594
997.009	2571
997.228	2571
997.448	2517
997.667	2518
997.886	2454
998.105	2498
998.325	2452
998.544	2411
998.763	2409
998.982	2367
999.201	2371
999.419	2351
999.638	2365
999.857	2352
1000.076	2359
1000.295	2326
1000.513	2331
1000.732	2306
1000.95	2267
1001.169	2298
1001.388	2305
1001.606	2278
1001.824	2270
1002.043	2242
1002.261	2285
1002.479	2264
1002.698	2232
1002.916	2230
1003.134	2248
1003.352	2235
1003.57	2228
1003.788	2216
1004.006	2197
1004.224	2192
1004.442	2183
1004.66	2215
1004.878	2173
1005.095	2146
1005.313	2131
1005.531	2132
1005.748	2180
1005.966	2231
1006.184	2118
1006.401	2182
1006.618	2159
1006.836	2144
1007.053	2136
1007.271	2112
1007.488	2128
1007.705	2156
1007.922	2134
1008.139	2110
1008.357	2113
1008.574	2133
1008.791	2193
1009.008	2222
1009.225	2242
1009.441	2281
1009.658	2291
1009.875	2307
1010.092	2322
1010.309	2296
1010.525	2258
1010.742	2224
1010.958	2154
1011.175	2217
1011.391	2161
1011.608	2165
1011.824	2146
1012.041	2111
1012.257	2100
1012.473	2054
1012.689	2083
1012.906	2050
1013.122	2043
1013.338	2014
1013.554	2010
1013.77	2053
1013.986	2071
1014.202	2106
1014.418	2149
1014.634	2232
1014.849	2262
1015.065	2294
1015.281	2290
1015.496	2310
1015.712	2211
1015.928	2230
1016.143	2151
1016.359	2124
1016.574	2061
1016.79	2000
1017.005	1963
1017.22	1894
1017.435	1832
1017.651	1811
1017.866	1786
1018.081	1751
1018.296	1715
1018.511	1688
1018.726	1660
1018.941	1677
1019.156	1636
1019.371	1653
1019.586	1647
1019.801	1639
1020.015	1630
1020.23	1635
1020.445	1593
1020.659	1578
1020.874	1549
1021.088	1529
1021.303	1498
1021.517	1469
1021.732	1418
1021.946	1421
1022.16	1428
1022.375	1389
1022.589	1375
1022.803	1307
1023.017	1301
1023.231	1268
1023.445	1279
1023.659	1207
1023.873	1198
1024.087	1174
1024.301	1163
1024.515	1165
1024.729	1149
1024.942	1094
1025.156	1117
1025.37	1070
1025.583	1051
1025.797	1032
1026.01	1034
1026.224	966
1026.437	945
1026.651	921
1026.864	894
1027.077	897
1027.291	880
1027.504	869
1027.717	833
1027.93	796
1028.143	796
1028.356	759
1028.569	725
1028.782	689
1028.995	1
1029.208	-3
1029.421	-3
1029.634	-4
